File: A.csv
Relative Pressure (P/Po),Quantity Adsorbed (cm3/g STP)
4.60E-07,40.0619
8.08E-07,80.4072
1.24E-06,120.81
1.95E-06,161.346
3.47E-06,201.419
1.98E-05,241.979
3.01E-05,257.697
3.99E-05,270.301
4.84E-05,281.855
6.00E-05,300.578
7.19E-05,321.812
8.00E-05,339.075
9.10E-05,361.551
0.000122165,401.272
0.000169951,423.878
0.000240034,439.55
0.000469896,457.443
0.001029937,475.051
0.002010342,481.639
0.003045762,484.988
0.003948507,486.934
0.004830186,488.383
0.005912671,489.809
0.006904737,490.894
0.007945685,491.88
0.00893684,492.697
0.009950202,493.474
0.0195664,498.483
0.02937333,502.408
0.0395738,506.352
0.0530488,511.815
0.0597825,514.501
0.0702859,517.395
0.0803821,519.604
0.0906934,521.579
0.100864,523.325
0.145578,529.464
0.201715,534.855
0.255898,538.784
0.306355,541.743
0.355727,543.883
0.400711,545.907
0.450996,547.906
0.500912,549.683
0.550729,551.272
0.60054,552.723
0.650424,554.08
0.699409,555.288
0.74943,556.441
0.79959,557.558
0.810604,557.968
0.82075,558.192
0.830251,558.396
0.840611,558.605
0.85009,558.783
0.86014,558.974
0.870537,559.185
0.880439,559.387
0.890352,559.564
0.900085,559.749
0.909886,559.956
0.920408,560.163
0.930174,560.367
0.940068,560.56
0.949687,560.791
0.959834,561.013
0.969298,561.252
0.979272,561.538
0.989261,561.839
0.998416,562.449