File: B.csv
Relative Pressure (P/Po),Quantity Adsorbed (cm3/g STP)
4.20E-05,1.53E+01
9.97E-05,3.06E+01
0.000148121,4.58E+01
0.000188506,6.11E+01
0.000224278,7.64E+01
0.000259844,9.18E+01
0.000299953,1.07E+02
0.000349057,1.22E+02
0.000417927,1.38E+02
0.000521085,1.53E+02
0.000684773,1.68E+02
0.000949862,1.83E+02
0.001422718,1.98E+02
0.00193056,2.07E+02
0.002936687,2.17E+02
0.003871099,2.22E+02
0.004945074,2.27E+02
0.005730774,2.30E+02
0.006698907,2.35E+02
0.008054492,2.43E+02
0.008892109,2.47E+02
0.009781263,2.50E+02
0.02074716,2.68E+02
0.0291109,2.74E+02
0.0381637,3.01E+02
0.04836001,3.11E+02
0.0637743,3.16E+02
0.0697769,3.17E+02
0.08004303,3.19E+02
0.0900836,3.20E+02
0.10043,3.22E+02
0.145027,3.26E+02
0.20271,3.30E+02
0.25486,3.33E+02
0.305344,3.36E+02
0.354387,3.38E+02
0.39927,3.40E+02
0.449413,3.42E+02
0.499422,3.44E+02
0.549131,3.46E+02
0.599553,3.48E+02
0.648966,3.50E+02
0.699056,3.52E+02
0.748964,3.54E+02
0.7992439,3.57E+02
0.809236,3.58E+02
0.819317,3.58E+02
0.829267,3.59E+02
0.839404,3.60E+02
0.850175,3.61E+02
0.859576,3.62E+02
0.86908,3.63E+02
0.879065,3.64E+02
0.889537,3.65E+02
0.899628,3.67E+02
0.909863,3.68E+02
0.919855,3.70E+02
0.929147,3.72E+02
0.939056,3.75E+02
0.948885,3.78E+02
0.959088,3.83E+02
0.969052,3.89E+02
0.978076,3.98E+02
0.986984,4.13E+02
0.994456,4.40E+02