File: D.csv
Relative Pressure (P/Po),Quantity Adsorbed (cm3/g STP)
7.24E-05,0.0595498
0.000143586,3.02618
0.000194756,16.5373
0.00022592,29.8425
0.000262361,43.3684
0.000320934,56.892
0.000342678,57.5047
0.000410737,66.8184
0.000490593,80.3333
0.000529528,87.699
0.000645145,101.19
0.000669906,101.409
0.000824694,114.924
0.001013574,128.372
0.00101671,128.466
0.00130365,141.303
0.00169959,154.676
0.00211443,164.405
0.00259059,173.376
0.003406121,184.951
0.004145448,193.595
0.005452415,205.551
0.006729352,215.109
0.008632363,226.66
0.0108917,237.828
0.0138006,249.476
0.0174006,261.327
0.02206847,273.992
0.0278236,287.17
0.034458,300.44
0.04178732,313.632
0.0448685,318.818
0.0530044,331.894
0.0548013,334.664
0.065061,349.731
0.0717499,359.363
0.081786,375.011
0.088454,386.49
0.0995423,402.643
0.114468,415.035
0.139194,428.365
0.155311,435.855
0.181102,449.341
0.192015,466.693
0.206189,484.391
0.246716,489.941
0.302737,494.795
0.372466,499.262
0.474121,504.055
0.537798,506.442
0.6024543,508.531
0.643579,509.766
0.684178,510.918
0.724253,512.042
0.764418,513.179
0.790465,513.941
0.815945,514.723
0.841291,515.569
0.866639,516.516
0.913919,518.889
0.941891,521.245
0.965929,525.373