File: E.csv
Relative Pressure (P/Po),Quantity Adsorbed (cm3/g STP)
1.23E-07,3.14276
2.48E-07,6.29656
3.50E-07,9.44781
5.48E-07,12.6073
7.55E-07,15.7466
9.99E-07,18.8807
1.22E-06,22.0485
1.47E-06,25.2042
1.97E-06,28.3642
2.84E-06,31.5268
3.85E-06,34.6649
5.17E-06,37.8177
6.88E-06,40.9696
8.83E-06,44.124
1.14E-05,47.2939
1.44E-05,50.4557
1.78E-05,53.6007
2.15E-05,56.7644
2.54E-05,59.9317
2.91E-05,63.0736
3.30E-05,66.244
3.67E-05,69.3873
4.04E-05,72.5567
4.40E-05,75.7343
4.76E-05,78.9096
5.12E-05,82.0853
5.48E-05,85.2537
5.86E-05,88.4367
6.25E-05,91.5898
6.65E-05,94.7497
7.07E-05,97.9136
7.53E-05,101.082
7.99E-05,104.232
8.49E-05,107.407
9.02E-05,110.563
9.59E-05,113.725
0.000101866,116.885
0.00010843,120.037
0.000115669,123.209
0.000123923,126.372
0.000132532,129.555
0.000142085,132.715
0.000152225,135.874
0.000163528,139.024
0.000175053,142.18
0.000188404,145.343
0.000203102,148.499
0.000219533,151.656
0.000237273,154.81
0.000256856,157.972
0.000278382,161.131
0.000302122,164.285
0.000328336,167.458
0.000357464,170.61
0.000389421,173.76
0.000425039,176.915
0.00046396,180.048
0.000507494,183.185
0.000555773,186.325
0.000609421,189.462
0.000668535,192.576
0.000733715,195.667
0.000805316,198.744
0.0008836,201.805
0.000969555,204.84
0.001180284,210.75
0.001369924,215.625
0.001659897,222.125
0.001983868,228.303
0.002481232,236
0.0029778,242.444
0.003900276,252.608
0.004901601,261.85
0.005748579,268.693
0.006815202,276.193
0.007932263,283.089
0.008908562,288.492
0.009924807,293.679
0.0122161,302.5
0.0153445,312.875
0.020657,325.265
0.029154,334.583
0.0430383,343.115
0.05607993,348.098
0.060133,349.348
0.0703102,352.02
0.0804443,354.247
0.090171,356.089
0.100546,357.806
0.110564,359.308
0.120602,360.648
0.130586,361.876
0.140095,362.9875
0.150375,364.08
0.160508,365.064
0.170668,366.006
0.179966,366.858
0.190646,367.761
0.200302,368.532
0.210335,369.298
0.220488,370.038
0.230573,370.733
0.240847,371.443
0.250568,372.081
0.260795,372.728
0.269581,373.295
0.280302,373.918
0.290696,374.515
0.300169,375
0.319237,376.055
0.340946,377.178
0.360937,378.1712
0.380701,379.12
0.401084,380.083
0.421098,380.993
0.440715,381.885
0.460879,382.784
0.479423,383.658
0.500683,384.594
0.519295,385.466
0.540989,386.391
0.559147,387.258
0.580858,388.222
0.600769,389.126
0.620649,390.025
0.640945,390.979
0.660587,391.921
0.680476,392.947
0.699493,394.038
0.71941,395.239
0.739506,396.489
0.759643,397.876
0.779643,399.35
0.799645,400.952
0.809048,401.834
0.820769,402.892
0.829733,403.822
0.839253,404.894
0.850506,406.143
0.860631,407.47
0.869346,408.682
0.880763,410.363
0.889853,411.875
0.900879,413.907
0.909389,415.727
0.919316,418.122
0.929206,420.971
0.939179,424.527
0.94913,429.158
0.986264,505.283
0.989723,549.188
0.992202,627.466