File: F.csv
Relative Pressure (P/Po),Quantity Adsorbed (cm3/g STP)
6.51E-05,0.244097
9.45E-05,0.478995
0.000140029,0.821924
0.000168502,1.58255
0.000212523,4.16358
0.000256869,31.4546
0.000285953,58.7555
0.000318927,86.0442
0.00032856,87.1132
0.000397185,92.4769
0.000427058,119.792
0.000458442,147.035
0.000511064,174.245
0.000580619,199.028
0.000637337,213.915
0.000890495,240.898
0.001019138,250.063
0.001355172,261.038
0.001632038,267.524
0.002111946,274.481
0.002599008,279.467
0.003298337,285.049
0.004368838,290.668
0.005230467,294.122
0.006777789,298.739
0.008474152,302.64
0.0107617,306.867
0.0140771,311.177
0.0170254,314.208
0.0221382,318.252
0.027921,321.798
0.0355329,325.31
0.0447292,328.592
0.0568625,331.969
0.0746405,335.633
0.0944469,338.778
0.119932,341.942
0.14986,344.911
0.188607,348.0485
0.237609,351.323
0.302415,355.159
0.375745,359.345
0.474393,365.458
0.538919,370.375
0.60262,376.3
0.644038,381.056
0.684098,386.449
0.723912,392.697
0.763564,400.121
0.790607,405.934
0.815629,411.99
0.840577,418.912
0.865723,427.081
0.91707,453.037
0.94041,474.602
0.96198,504.729
0.97071,522.703