File: G.csv
Relative Pressure (P/Po),Quantity Adsorbed (cm3/g STP)
2.00E-05,1.52367
5.79E-05,1.91071
9.07E-05,2.66707
9.97E-05,4.41112
0.000120002,11.3383
0.000135878,19.3706
0.000149981,30.3233
0.000153726,34.3444
0.000162203,48.2123
0.000169951,56.782
0.00017989,63.1762
0.000206222,66.2429
0.000247599,67.9809
0.000279922,73.985
0.00030673,82.9419
0.000320061,88.8722
0.000331941,97.8723
0.000340176,112.714
0.000410145,122.331
0.000537827,127.281
0.000900104,132.256
0.001686888,136.648
0.00209589,137.723
0.002623178,138.772
0.003299735,139.786
0.004185916,140.758
0.005255232,141.621
0.006657108,142.475
0.008491008,143.32
0.01080895,144.117
0.0136723,144.859
0.0173791,145.587
0.02212,146.275
0.0279722,146.918
0.0355024,147.565
0.04518963,148.186
0.0571048,148.763
0.0735038,149.37
0.0928973,149.911
0.117365,150.427
0.148033,150.916
0.186992,151.385
0.23627,151.819
0.298619,152.22
0.376376,152.568
0.475677,152.864
0.5396658,153.023
0.603275,153.153
0.644041,153.239
0.684269,153.322
0.724374,153.405
0.764422,153.498
0.790647,153.569
0.815998,153.657
0.841458,153.741
0.866632,153.847
0.915619,154.16
0.942539,154.519
0.967869,155.161