File: H.csv
Relative Pressure (P/Po),Quantity Adsorbed (cm3/g STP)
3.41E-05,2.14379
5.85E-05,2.66986
8.29E-05,7.50726
0.000106975,23.42
0.000125602,39.3335
0.000144069,55.2443
0.000163778,71.1472
0.000187348,87.0443
0.000208741,94.1148
0.00026291,98.7054
0.00032538,114.604
0.000393299,130.444
0.00040154,132.919
0.000460131,142.16
0.000541423,148.693
0.000650309,150.741
0.000858217,155.559
0.001130007,160.84
0.001352074,163.636
0.001629688,166.287
0.002048444,169.48
0.002672633,173.085
0.00340465,175.885
0.004236093,177.895
0.005229068,179.579
0.006804549,181.615
0.008670638,183.274
0.0106025,184.528
0.0135606,185.994
0.0175136,187.403
0.02198175,188.555
0.0277976,189.716
0.0355583,190.913
0.0450877,192.051
0.0570843,193.185
0.0738528,194.384
0.0935045,195.535
0.117918,196.679
0.148441,197.878
0.187453,199.153
0.236738,200.539
0.301022,202.061
0.376151,203.657
0.475698,205.577
0.539979,206.648
0.603025,207.661
0.644358,208.233
0.684219,208.742
0.724397,209.23
0.764352,209.772
0.790607,210.144
0.815986,210.524
0.841262,210.98
0.866822,211.488
0.914684,212.8
0.942892,213.872
0.967733,215.327