File: I.csv
Relative Pressure (P/Po),Quantity Adsorbed (cm3/g STP)
8.48E-07,13.2904
2.29E-06,26.7097
5.69E-06,40.067
1.04E-05,53.4264
2.12E-05,66.7766
4.17E-05,80.1174
8.81E-05,93.4455
0.00019284,106.73
0.000441225,119.963
0.000989339,132.642
0.001921761,143.498
0.00291461,150.651
0.003944906,155.984
0.004813169,159.489
0.00594435,163.24
0.006835363,165.731
0.007914356,168.372
0.008883336,170.507
0.009932936,172.601
0.01909818,187.146
0.029133,199.946
0.0384295,211.097
0.0508289,221.572
0.0573561,225.586
0.0698217,231.426
0.0802729,235.003
0.0905916,237.593
0.100872,239.603
0.145608,245.338
0.204339,249.807
0.256823,252.77
0.307448,255.224
0.355312,257.329
0.400438,259.179
0.450467,261.114
0.500563,262.99
0.550629,264.847
0.600467,266.759
0.650694,268.785
0.70078,271.02
0.749541,273.477
0.799036,276.521
0.809765,277.414
0.820898,278.262
0.830183,279.047
0.840518,279.954
0.850135,280.862
0.860012,281.881
0.870324,283.036
0.880063,284.263
0.890037,285.663
0.899697,287.222
0.910225,289.143
0.920572,291.327
0.929732,293.798
0.939226,296.833
0.948783,300.921
0.959005,306.778
0.968528,315.037
0.977413,328.069
0.986178,349.141
0.992911,378.202