File: J.csv
Relative Pressure (P/Po),Quantity Adsorbed (cm3/g STP)
4.88E-05,1.295
0.000103039,2.38504
0.000152256,2.69464
0.000192992,3.37627
0.000227689,3.93878
0.000262075,4.75666
0.000339317,22.3177
0.000410328,47.099
0.000436056,55.5998
0.000530897,80.3664
0.00068157,104.392
0.000825555,114.796
0.001018034,123.347
0.001387476,140.757
0.001754256,155.485
0.002082039,167.921
0.002634584,192.642
0.003096,217.407
0.003421564,238.366
0.00373714,263.099
0.003990249,287.829
0.004203087,312.531
0.004384442,337.233
0.004550507,361.904
0.004701429,386.586
0.004831217,411.272
0.004959268,435.905
0.005083147,460.562
0.005198735,485.206
0.005324749,509.794
0.005452929,534.425
0.005573198,559.03
0.005699939,583.681
0.005873153,608.256
0.006055369,633.048
0.006277627,657.605
0.006538265,682.214
0.006870036,706.755
0.007278209,731.329
0.007840088,755.753
0.008534543,779.804
0.009537856,803.998
0.01071683,824.871
0.0127169,849.146
0.0133568,854.765
0.0167836,878.945
0.017191,880.796
0.0216641,899.701
0.0295578,920.725
0.0374968,934.109
0.043816,941.933
0.0563548,953.782
0.0750008,965.956
0.0946229,975.037
0.12134,984.182
0.148705,991.53
0.186664,1000
0.233461,1009.4
0.292644,1020.29
0.376873,1032.24
0.477272,1039.1
0.557468,1041.13
0.622325,1041.65
0.663689,1041.53
0.703953,1041.24
0.744085,1040.86
0.784235,1040.39
0.81037,1039.94
0.835704,1039.59
0.861221,1039.14
0.886535,1038.71
0.936029,1037.9
0.962544,1037.52
0.987972,1037.37