File: K.csv
Relative Pressure (P/Po),Quantity Adsorbed (cm3/g STP)
4.75E-05,0.399389
9.69E-05,0.790258
0.000123181,0.849467
0.000128577,0.901646
0.000164533,1.30537
0.000217301,8.21506
0.000257214,21.8738
0.000279122,35.5342
0.000300744,49.1915
0.000322968,62.8484
0.000351409,76.9742
0.000368692,90.6289
0.000383691,104.284
0.000393716,117.939
0.000410668,131.592
0.000431396,145.25
0.000433515,158.907
0.000434096,172.56
0.00044681,186.21
0.000448218,213.519
0.000460131,291.125
0.000469896,332.636
0.000479868,361.132
0.000495921,402.217
0.000505841,428.266
0.000522755,441.905
0.000561279,455.535
0.000612371,481.522
0.000762905,495.114
0.001046492,508.667
0.001338775,516.079
0.001690835,522.206
0.002200656,528.546
0.002830961,535.559
0.003348623,542.795
0.003953084,556.291
0.004340588,569.267
0.005364889,582.449
0.006599917,590.045
0.008409006,596.148
0.0106471,600.5395
0.01347842,603.873
0.0174008,606.692
0.0220374,608.754
0.0288725,610.62
0.0379485,612.122
0.0432212,612.728
0.0563305,613.762
0.0757048,614.68
0.0967475,615.3
0.121067,615.7739
0.148104,616.133
0.182104,616.452
0.230198,616.775
0.294028,617.097
0.376153,617.418
0.47515,617.811
0.539635,618.145
0.602891,618.616
0.644113,619.067
0.683964,619.697
0.723677,620.63
0.762441,622.152
0.7894,623.877
0.815017,626.201
0.840146,629.21
0.865212,632.982
0.930034,640.242
0.95885,640.867
0.983378,641.637