File: L.csv
Relative Pressure (P/Po),Quantity Adsorbed (cm3/g STP)
9.79E-03,106.654
1.30E-02,110.752
0.0169922,115.714
0.0219937,121.579
0.02998674,130
0.039658,138.187
0.0560226,148.195
0.0712954,155.557
0.104928,169.257
0.129699,177.907
0.159961,187.575
0.191746,197.238
0.222604,206.618
0.252936,216.333
0.284027,228.206
0.305135,240.827
0.316013,251.085
0.333871,295.263
0.343961,316.371
0.372991,345.038
0.427552,371.187
0.447576,372.249
0.476895,373.666
0.499736,374.655
0.529858,375.856
0.560582,376.981
0.591213,378.027
0.621879,379.047
0.652785,380.009
0.683268,380.934
0.713948,381.848
0.744564,382.772
0.775127,383.722
0.806788,384.713
0.83655,385.694
0.867019,386.798
0.897226,388.201
0.937869,391.638