File: M.csv
Relative Pressure (P/Po),Quantity Adsorbed (cm3/g STP)
0.001665872,157.585
0.00194442,163.677
0.002868962,180.628
0.003965587,196.425
0.004867865,207.399
0.005726495,216.475
0.006790925,226.366
0.007894831,235.419
0.008900371,242.722
0.009887064,249.227
0.0119982,260.56
0.0139958,270.16
0.0191974,291.424
0.023006,304.4
0.0288494,321.604
0.0382415,345.644
0.0500177,372.036
0.0570592,386.434
0.069002,409.055
0.07905353,426.579
0.0889275,442.809
0.098903,458.151
0.117843,485
0.137931,510.962
0.158643,536.062
0.178416,560.002
0.197221,584.645
0.214358,619.187
0.224922,714.24
0.235341,799.461
0.268275,833.823
0.295847,848.122
0.326119,862.951
0.342338,870.005
0.360029,876.912
0.380357,884.425
0.399925,891.297
0.448298,907.874
0.50004,924.876
0.549395,941.01
0.599734,957.862
0.64933,975.255
0.699352,994.079
0.749629,1015.81
0.798779,1041.15
0.847692,1075.89
0.896305,1130.84
0.946154,1251.21
0.99812,1851.15