File: N.csv
Relative Pressure (P/Po), Quantity Adsorbed (cm3/g STP)
0.001034,134.101
0.001108417,135.731
0.00118819,137.471
0.001273703,139.328
0.001365372,141.308
0.001463638,143.417
0.001568975,145.661
0.001681894,148.045
0.00180294,150.573
0.001932698,153.248
0.002071794,156.073
0.002220901,159.047
0.002380739,162.168
0.00255208,165.428
0.002735753,168.817
0.002932645,172.318
0.003143708,175.906
0.00336996,179.547
0.003612496,183.195
0.003872487,186.788
0.004151189,190.245
0.00444995,193.462
0.004770213,196.302
0.005113525,198.702
0.005481545,201.012
0.005876051,203.267
0.00629895,205.452
0.006752285,207.556
0.007238246,209.572
0.007759182,211.502
0.00831761,213.357
0.008916228,215.165
0.009557928,216.974
0.0102458,218.791
0.0109832,220.604
0.0117737,222.407
0.012621,224.197
0.0135293,225.974
0.01450305,227.744
0.0155468,229.518
0.0166657,231.321
0.01786517,233.191
0.0191509,235.171
0.0205292,237.193
0.0220067,239.239
0.0235905,241.312
0.02528833,243.421
0.02710833,245.583
0.0290593,247.825
0.0311507,250.175
0.0333926,252.453
0.03579589,254.734
0.0383721,257.281
0.0411338,260.463
0.0440941,264.315
0.0472676,269.053
0.0506694,275.251
0.0543161,282.996
0.05822525,288.552
0.0624157,293.141
0.0669078,296.677
0.0717231,299.379
0.076885,302.924
0.0824184,307.099
0.0883501,311.971
0.0947086,317.31
0.101525,321.51
0.108832,326.304
0.116664,334.122
0.12506,344.347
0.134061,356.084
0.143709,360.976
0.154052,362.694
0.165139,364.854
0.177024,367.746
0.189765,368.082
0.203422,369.808
0.218062,369.922
0.233756,371.354
0.25058,373.37
0.268614,373.801
0.287946,375.222
0.30867,375.897
0.330884,376.535
0.354698,377.907
0.380226,378.68
0.407591,379.821
0.436925,380.697
0.46837,381.042
0.502079,382.405
0.538213,383.645
0.576949,384.031
0.618472,384.902
0.662983,385.472
0.710698,386.729
0.761847,388.42
0.816677,388.77
0.875453,389.444
0.938459,391.117