File: P.csv
Relative Pressure (P/Po), Quantity Adsorbed (cm3/g STP)
0.002546,117.283
0.005092,327.134
0.006288706,358.803
0.007638,382.705
0.009022805,404.698
0.010183,419.764
0.012729,444.48
0.015275,469.195
0.017821,475.397
0.020367,518.626
0.022913,543.342
0.025459,561.886
0.028004,605.1153
0.03055,629.831
0.033096,642.205
0.035642,654.578
0.038188,673.123
0.040734,691.668
0.045825,716.4141
0.050917,765.845
0.053463,784.389
0.056009,796.763
0.058555,821.4794
0.0611,877.051
0.063646,914.109
0.066192,926.482
0.068738,969.711
0.071284,1000.6
0.07383,1031.49
0.076376,1111.74
0.078921,1136.46
0.081467,1167.34
0.084013,1222.92
0.086559,1241.46
0.091651,1290.89
0.094197,1315.61
0.096742,1340.32
0.099288,1358.87
0.101835,1371.25
0.10438,1389.78
0.106926,1408.33
0.112018,1426.91
0.114563,1451.62
0.119655,1488.71
0.122201,1494.92
0.124747,1513.45
0.127293,1532
0.129839,1544.37
0.132384,1556.74
0.13493,1581.46
0.137476,1600.01
0.142568,1618.59
0.145114,1630.96
0.150205,1649.53
0.152751,1655.74
0.155297,1674.277
0.160388,1686.69
0.162935,1705.23
0.165481,1717.6
0.168026,1729.98
0.173118,1760.89
0.175664,1773.26
0.178209,1791.81
0.180756,1810.36
0.183302,1828.9
0.185847,1847.445
0.188394,1866.02
0.190939,1878.32
0.193485,1933.93
0.19603,1989.5
0.198577,2088.28
0.201122,2112.99
0.203668,2143.87
0.206215,2162.42
0.20876,2180.97
0.211306,2205.69
0.213851,2230.4
0.216398,2248.94
0.218943,2261.322
0.224036,2279.89
0.226581,2292.27
0.231673,2329.36
0.234219,2347.89
0.23931,2360.3
0.241856,2366.51
0.25204,2378.98
0.259677,2385.24
0.264769,2397.637
0.269861,2403.87
0.272406,2403.9
0.277498,2410.13
0.282589,2416.36
0.285136,2416.406
0.290227,2416.46
0.297865,2422.72
0.30041,2428.93
0.308048,2429.02
0.310595,2435.23
0.315686,2435.28
0.320778,2441.52
0.325869,2441.59
0.330961,2441.64
0.34369,2447.97
0.351328,2454.23
0.35642,2454.3
0.364057,2460.56
0.369149,2460.62
0.376786,2460.71
0.381878,2466.95
0.38697,2467.01
0.402245,2467.19
0.407337,2467.26
0.412428,2467.32
0.425158,2467.48
0.432796,2473.74
0.440432,2473.84
0.455708,2480.19
0.465891,2480.32
0.488804,2486.77
0.501533,2493.08
0.511717,2493.22
0.516808,2493.28
0.524446,2499.54
0.529538,2499.61
0.537176,2499.702
0.542267,2499.76
0.549905,2499.85
0.560088,2499.976
0.570271,2500.1
0.580454,2506.4
0.593184,2512.717
0.600822,2512.81
0.611005,2512.94
0.623734,2513.09
0.631372,2519.36
0.636464,2519.42
0.654285,2525.81
0.661922,2525.9
0.672106,2526.02
0.687381,2526.21
0.689927,2526.24
0.702655,2532.57
0.710293,2532.66
0.715385,2532.719
0.733206,2532.94
0.735752,2532.97
0.745935,2533.09
0.753573,2533.18
0.763756,2533.31
0.768848,2533.38
0.77394,2539.61
0.779031,2539.66
0.784123,2539.73
0.796852,2539.88
0.81722,2540.13
0.832494,2546.49
0.840132,2546.58
0.847769,2546.68
0.863045,2553.04
0.868136,2553.09
0.87832,2553.23
0.885957,2553.31
0.903778,2553.53
0.957242,2560.35
0.964878,2560.45
0.987791,2566.9
0.992883,2573.134