File: Q.csv
Relative Pressure (P/Po), Quantity Adsorbed (cm3/g STP)
0.000145,31.8992
0.000228,50.1274
0.000249,54.6844
0.00029,63.7985
0.000311,68.3555
0.000353,77.4699
0.000436,95.6977
0.003921,109.399
0.004004,127.628
0.004149,159.527
0.004232,177.755
0.004315,195.983
0.00778,205.128
0.007842,218.799
0.011307,227.944
0.014793,241.646
0.01832,264.462
0.021785,273.607
0.02527,287.308
0.028735,296.453
0.03222,310.156
0.035706,323.857
0.039171,333.002
0.042615,337.59
0.0461,351.292
0.049565,360.437
0.05303,369.581
0.053071,378.695
0.056536,387.841
0.05998,392.429
0.066868,401.604
0.070333,410.749
0.077242,424.481
0.080686,429.069
0.084171,442.771
0.087615,447.359
0.091101,461.061
0.09803,479.35
0.104939,493.083
0.115333,520.518
0.129089,534.312
0.132595,552.571
0.139525,570.861
0.149878,589.181
0.16023,607.502
0.17743,625.884
0.191247,653.35
0.205003,667.144
0.215335,680.907
0.222223,690.083
0.225709,703.784
0.232617,717.517
0.236144,740.333
0.239651,758.594
0.239734,776.82
0.239816,795.045
0.243302,808.752
0.243406,831.534
0.246892,845.241
0.257285,872.669
0.264153,877.293
0.274485,891.053
0.281332,891.113
0.284796,900.263
0.295108,909.466
0.305419,918.677
0.319153,927.91
0.329486,941.677
0.346644,950.94
0.356935,955.594
0.367225,960.241
0.387806,969.541
0.40152,974.218
0.415234,978.902
0.425503,978.992
0.44264,983.707
0.463201,988.444
0.483762,993.188
0.497475,997.865
0.518015,998.053
0.538596,1007.35
0.548866,1007.44
0.559136,1007.53
0.565982,1007.59
0.583119,1012.31
0.596813,1012.43
0.631066,1017.29
0.65505,1022.07
0.692727,1026.96
0.713267,1027.15
0.73723,1027.37
0.764616,1027.61
0.764637,1032.17
0.792043,1036.97
0.81943,1037.22
0.822875,1041.8
0.857107,1042.11
0.891381,1051.53
0.915344,1051.75
0.918788,1056.34
0.956444,1056.68
0.966735,1061.32
0.966756,1065.89
0.980469,1070.56
0.990781,1079.77
0.994225,1084.36